# t(fs)   T(K)
0.00000000 298.37697510
0.30000000 298.44396892
0.60000000 298.50768922
0.90000000 298.56818129
1.20000000 298.62549041
1.50000000 298.67966189
1.80000000 298.73074101
2.10000000 298.77877306
2.40000000 298.82380335
2.70000000 298.86587716
3.00000000 298.90503978
3.30000000 298.94133650
3.60000000 298.97481263
3.90000000 299.00551345
4.20000000 299.03348425
4.50000000 299.05877033
4.80000000 299.08141698
5.10000000 299.10146949
5.40000000 299.11897315
5.70000000 299.13397327
6.00000000 299.14651512
6.30000000 299.15664400
6.60000000 299.16440521
6.90000000 299.16984404
7.20000000 299.17300578
7.50000000 299.17393572
7.80000000 299.17267915
8.10000000 299.16928138
8.40000000 299.16378768
8.70000000 299.15624336
9.00000000 299.14669370
9.30000000 299.13518400
9.60000000 299.12175955
9.90000000 299.10646564
10.20000000 299.08934757
10.50000000 299.07045063
10.80000000 299.04982011
11.10000000 299.02750130
11.40000000 299.00353950
11.70000000 298.97798000
12.00000000 298.95086808
12.30000000 298.92224906
12.60000000 298.89216820
12.90000000 298.86067082
13.20000000 298.82780220
13.50000000 298.79360763
13.80000000 298.75813241
14.10000000 298.72142183
14.40000000 298.68352118
14.70000000 298.64447576
15.00000000 298.60433085
15.30000000 298.56313175
15.60000000 298.52092375
15.90000000 298.47775215
16.20000000 298.43366223
16.50000000 298.38869930
16.80000000 298.34290863
17.10000000 298.29633554
17.40000000 298.24902530
17.70000000 298.20102320
18.00000000 298.15237456
18.30000000 298.10312464
18.60000000 298.05331876
18.90000000 298.00300219
19.20000000 297.95222024
19.50000000 297.90101820
19.80000000 297.84944135
20.10000000 297.79753499
20.40000000 297.74534441
20.70000000 297.69291491
21.00000000 297.64029178
21.30000000 297.58752031
21.60000000 297.53464580
21.90000000 297.48171353
22.20000000 297.42876880
22.50000000 297.28138112
22.80000000 297.17718637
23.10000000 297.09680723
23.40000000 297.04299727
23.70000000 297.01372855
24.00000000 297.00294667
24.30000000 297.00231550
24.60000000 297.00337898
24.90000000 296.99948091
25.20000000 296.98698551
25.50000000 296.96550500
25.80000000 296.93720242
26.10000000 296.90566046
26.40000000 296.87471511
26.70000000 296.84757287
27.00000000 296.82640109
27.30000000 296.81229754
27.60000000 296.80546643
27.90000000 296.80542854
28.20000000 296.81120856
28.50000000 296.82147632
28.80000000 296.83458056
29.10000000 296.84847989
29.40000000 296.86058978
29.70000000 296.86765667
30.00000000 296.86583779
30.30000000 296.85113725
30.60000000 296.82027816
30.90000000 296.77178114
31.20000000 296.70684244
31.50000000 296.62958824
31.80000000 296.54640880
32.10000000 296.46450773
32.40000000 296.39016217
32.70000000 296.32734752
33.00000000 296.27720182
33.30000000 296.23848241
33.60000000 296.20871007
33.90000000 296.18544968
34.20000000 296.16728588
34.50000000 296.15409616
34.80000000 296.14658676
35.10000000 296.14546041
35.40000000 296.15065809
35.70000000 296.16098538
36.00000000 296.17424169
36.30000000 296.18778262
36.60000000 296.19925644
36.90000000 296.20729394
37.20000000 296.21200696
37.50000000 296.21514617
37.80000000 296.21983231
38.10000000 296.22981182
38.40000000 296.24833477
38.70000000 296.27690143
39.00000000 296.31429281
39.30000000 296.35632950
39.60000000 296.39652498
39.90000000 296.42752297
40.20000000 296.44287782
40.50000000 296.43856549
40.80000000 296.41375370
41.10000000 296.37066675
41.40000000 296.31375752
41.70000000 296.24858591
42.00000000 296.18076942
42.30000000 296.11528073
42.60000000 296.05613261
42.90000000 296.00634887
43.20000000 295.96803230
43.50000000 295.94235043
43.80000000 295.92933978
44.10000000 295.92758190
44.40000000 295.93401615
44.70000000 295.94408633
45.00000000 295.95231755
45.30000000 295.95326652
45.60000000 295.94266099
45.90000000 295.91845779
46.20000000 295.88158643
46.50000000 295.83619382
46.80000000 295.78923830
47.10000000 295.74936824
47.40000000 295.72516879
47.70000000 295.72313835
48.00000000 295.74592476
48.30000000 295.79139631
48.60000000 295.85292337
48.90000000 295.92080493
49.20000000 295.98439474
49.50000000 296.03425653
49.80000000 296.06371258
50.10000000 296.06955985
50.40000000 296.05203341
50.70000000 296.01421973
51.00000000 295.96128893
51.30000000 295.89971508
51.60000000 295.83645432
51.90000000 295.77816716
52.20000000 295.73053585
52.50000000 295.69765067
52.80000000 295.68149225
53.10000000 295.68159660
53.40000000 295.69497125
53.70000000 295.71632877
54.00000000 295.73869487
54.30000000 295.75440221
54.60000000 295.75642894
54.90000000 295.73988856
55.20000000 295.70333601
55.50000000 295.64955940
55.80000000 295.58561802
56.10000000 295.52190366
56.40000000 295.47026927
56.70000000 295.44164910
57.00000000 295.44367282
57.30000000 295.47894310
57.60000000 295.54456900
57.90000000 295.63300495
58.20000000 295.73383252
58.50000000 295.83591178
58.80000000 295.92932867
59.10000000 296.00680359
59.40000000 296.06442252
59.70000000 296.10172602
60.00000000 296.12137108
60.30000000 296.12847773
60.60000000 296.12970693
60.90000000 296.13222155
61.20000000 296.14265465
61.50000000 296.16617050
61.80000000 296.20574788
62.10000000 296.26177478
62.40000000 296.33200558
62.70000000 296.41183523
63.00000000 296.49488212
63.30000000 296.57392910
63.60000000 296.64208553
63.90000000 296.69397586
64.20000000 296.72679618
64.50000000 296.74101842
64.80000000 296.74054084
65.10000000 296.73224682
65.40000000 296.72497579
65.70000000 296.72802318
66.00000000 296.74947955
66.30000000 296.79474674
66.60000000 296.86558063
66.90000000 296.95994957
67.20000000 297.07266006
67.50000000 297.19656632
67.80000000 297.32401462
68.10000000 297.44812919
68.40000000 297.56372897
68.70000000 297.66778412
69.00000000 297.75945441
69.30000000 297.83985264
69.60000000 297.91164842
69.90000000 297.97858440
70.20000000 298.04497002
70.50000000 298.11513130
70.80000000 298.19285655
71.10000000 298.28084057
71.40000000 298.38014205
71.70000000 298.48982378
72.00000000 298.60688859
72.30000000 298.72662453
72.60000000 298.84333686
72.90000000 298.95127733
73.20000000 299.04552333
73.50000000 299.12261872
73.80000000 299.18095362
74.10000000 299.22088080
74.40000000 299.24466929
74.70000000 299.25629569
75.00000000 299.26095445
75.30000000 299.26428682
75.60000000 299.27142226
75.90000000 299.28601692
76.20000000 299.30956559
76.50000000 299.34126931
76.80000000 299.37847866
77.10000000 299.41753342
77.40000000 299.45470258
77.70000000 299.48689797
78.00000000 299.51204119
78.30000000 299.52908159
78.60000000 299.53782476
78.90000000 299.53874323
79.20000000 299.53285455
79.50000000 299.52176434
79.80000000 299.50773160
80.10000000 299.49354291
80.40000000 299.48210840
80.70000000 299.47580581
81.00000000 299.47581091
81.30000000 299.48171517
81.60000000 299.49158832
81.90000000 299.50241250
82.20000000 299.51059395
82.50000000 299.51237148
82.80000000 299.50412675
83.10000000 299.48262055
83.40000000 299.44533793
83.70000000 299.39099889
84.00000000 299.32008924
84.30000000 299.23509838
84.60000000 299.14019596
84.90000000 299.04039333
85.20000000 298.94044188
85.50000000 298.84389254
85.80000000 298.75266080
86.10000000 298.66708348
86.40000000 298.58628633
86.70000000 298.50858320
87.00000000 298.43172341
87.30000000 298.35305230
87.60000000 298.26965914
87.90000000 298.17865471
88.20000000 298.07769910
88.50000000 297.96564576
88.80000000 297.84314474
89.10000000 297.71298131
89.40000000 297.57986923
89.70000000 297.44973975
90.00000000 297.32874948
90.30000000 297.22219661
90.60000000 297.13363925
90.90000000 297.06434964
91.20000000 297.01313342
91.50000000 296.97651751
91.80000000 296.94921092
92.10000000 296.92480119
92.40000000 296.89671864
92.70000000 296.85935090
93.00000000 296.80910599
93.30000000 296.74513044
93.60000000 296.66940498
93.90000000 296.58614097
94.20000000 296.50065576
94.50000000 296.41815689
94.80000000 296.34285883
95.10000000 296.27759755
95.40000000 296.22379501
95.70000000 296.18157891
96.00000000 296.14984448
96.30000000 296.12621730
96.60000000 296.10709368
96.90000000 296.08787661
97.20000000 296.06350333
97.50000000 296.02930596
97.80000000 295.98201556
98.10000000 295.92065666
98.40000000 295.84710623
98.70000000 295.76613195
99.00000000 295.68489726
99.30000000 295.61197637
99.60000000 295.55597809
99.90000000 295.52398955
100.20000000 295.52013839
100.50000000 295.54468325
100.80000000 295.59389146
101.10000000 295.66076363
101.40000000 295.73646293
101.70000000 295.81205919
102.00000000 295.88023683
102.30000000 295.93661122
102.60000000 295.98027478
102.90000000 296.01354816
103.20000000 296.04107905
103.50000000 296.06859016
103.80000000 296.10168932
104.10000000 296.14496006
104.40000000 296.20145175
104.70000000 296.27254650
105.00000000 296.35803504
105.30000000 296.45625595
105.60000000 296.56418784
105.90000000 296.67758706
106.20000000 296.79127565
106.50000000 296.89960827
106.80000000 296.99720928
107.10000000 297.07993420
107.40000000 297.14581765
107.70000000 297.19579344
108.00000000 297.23399337
108.30000000 297.26734148
108.60000000 297.30439206
108.90000000 297.35367928
109.20000000 297.42192951
109.50000000 297.51260916
109.80000000 297.62521805
110.10000000 297.75549487
110.40000000 297.89650016
110.70000000 298.04028645
111.00000000 298.17964129
111.30000000 298.30951451
111.60000000 298.42789507
111.90000000 298.53590816
112.20000000 298.63720947
112.50000000 298.73688957
112.80000000 298.84021481
113.10000000 298.95155494
113.40000000 299.07373695
113.70000000 299.20788151
114.00000000 299.35360467
114.30000000 299.50937783
114.60000000 299.67284960
114.90000000 299.84104637
115.20000000 300.01041718
115.50000000 300.17684465
115.80000000 300.33577518
116.10000000 300.48252854
116.40000000 300.61293292
116.70000000 300.72417501
117.00000000 300.81553662
117.30000000 300.88880805
117.60000000 300.94811579
117.90000000 300.99907928
118.20000000 301.04753681
118.50000000 301.09825713
118.80000000 301.15398424
119.10000000 301.21501766
119.40000000 301.27934380
119.70000000 301.34321883
120.00000000 301.40207836
120.30000000 301.45163210
120.60000000 301.48885998
120.90000000 301.51270098
121.20000000 301.52428162
121.50000000 301.52650626
121.80000000 301.52323574
122.10000000 301.51834419
122.40000000 301.51492719
122.70000000 301.51491386
123.00000000 301.51908349
123.30000000 301.52736944
123.60000000 301.53923246
123.90000000 301.55391552
124.20000000 301.57048773
124.50000000 301.58765588
124.80000000 301.60353436
125.10000000 301.61559908
125.40000000 301.62091039
125.70000000 301.61663088
126.00000000 301.60073236
126.30000000 301.57253542
126.60000000 301.53285324
126.90000000 301.48368801
127.20000000 301.42757596
127.50000000 301.36686832
127.80000000 301.30319860
128.10000000 301.23724383
128.40000000 301.16873447
128.70000000 301.09664590
129.00000000 301.01946888
129.30000000 300.93550487
129.60000000 300.84326865
129.90000000 300.74193162
130.20000000 300.63165999
130.50000000 300.51367241
130.80000000 300.38990984
131.10000000 300.26255965
131.40000000 300.13360905
131.70000000 300.00460579
132.00000000 299.87674372
132.30000000 299.75111247
132.60000000 299.62898623
132.90000000 299.51191416
133.20000000 299.40150012
133.50000000 299.29905665
133.80000000 299.20526558
134.10000000 299.11995466
134.40000000 299.04215094
134.70000000 298.97035880
135.00000000 298.90286871
135.30000000 298.83809872
135.60000000 298.77481685
135.90000000 298.71218783
136.20000000 298.64973444
136.50000000 298.58725248
136.80000000 298.52474970
137.10000000 298.46254795
137.40000000 298.40144641
137.70000000 298.34270522
138.00000000 298.28781352
138.30000000 298.23806155
138.60000000 298.19402757
138.90000000 298.15525869
139.20000000 298.12029953
139.50000000 298.08699701
139.80000000 298.05298056
140.10000000 298.01611110
140.40000000 297.97477516
140.70000000 297.92807347
141.00000000 297.87596574
141.30000000 297.81938246
141.60000000 297.76029436
141.90000000 297.70164559
142.20000000 297.64703577
142.50000000 297.60016507
142.80000000 297.56420505
143.10000000 297.54128345
143.40000000 297.53221204
143.70000000 297.53649732
144.00000000 297.55256330
144.30000000 297.57809654
144.60000000 297.61039650
144.90000000 297.64669320
145.20000000 297.68441860
145.50000000 297.72142254
145.80000000 297.75617607
146.10000000 297.78797419
146.40000000 297.81715108
146.70000000 297.84520787
147.00000000 297.87465522
147.30000000 297.90851141
147.60000000 297.94956930
147.90000000 297.99955307
148.20000000 298.05849412
148.50000000 298.12459693
148.80000000 298.19460479
149.10000000 298.26462384
149.40000000 298.33106192
149.70000000 298.39125546
150.00000000 298.44366840
150.30000000 298.48780421
150.60000000 298.52403714
150.90000000 298.55351190
151.20000000 298.57811908
151.50000000 298.60046593
151.80000000 298.62372110
152.10000000 298.65122879
152.40000000 298.68594303
152.70000000 298.72986154
153.00000000 298.78360595
153.30000000 298.84631928
153.60000000 298.91593049
153.90000000 298.98961174
154.20000000 299.06433385
154.50000000 299.13741852
154.80000000 299.20699606
155.10000000 299.27233634
155.40000000 299.33401226
155.70000000 299.39384250
156.00000000 299.45462385
156.30000000 299.51963560
156.60000000 299.59191233
156.90000000 299.67344953
157.20000000 299.76451596
157.50000000 299.86329811
157.80000000 299.96606425
158.10000000 300.06790604
158.40000000 300.16384038
158.70000000 300.24983319
159.00000000 300.32339883
159.30000000 300.38368997
159.60000000 300.43121617
159.90000000 300.46741779
160.20000000 300.49427441
160.50000000 300.51405708
160.80000000 300.52916512
161.10000000 300.54196286
161.40000000 300.55454963
161.70000000 300.56843520
162.00000000 300.58428152
162.30000000 300.60174902
162.60000000 300.61951106
162.90000000 300.63548595
163.20000000 300.64727163
163.50000000 300.65266493
163.80000000 300.65016188
164.10000000 300.63938755
164.40000000 300.62135008
164.70000000 300.59845809
165.00000000 300.57427502
165.30000000 300.55294342
165.60000000 300.53841792
165.90000000 300.53366560
166.20000000 300.53995002
166.50000000 300.55646880
166.80000000 300.58047319
167.10000000 300.60784407
167.40000000 300.63400641
167.70000000 300.65488954
168.00000000 300.66761342
168.30000000 300.67075515
168.60000000 300.66423548
168.90000000 300.64903943
169.20000000 300.62691758
169.50000000 300.60005086
169.80000000 300.57070462
170.10000000 300.54088701
170.40000000 300.51204156
170.70000000 300.48485680
171.00000000 300.45918950
171.30000000 300.43415104
171.60000000 300.40831974
171.90000000 300.38003806
172.20000000 300.34781504
172.50000000 300.31071808
172.80000000 300.26864998
173.10000000 300.22250327
173.40000000 300.17412475
173.70000000 300.12608021
174.00000000 300.08126720
174.30000000 300.04249009
174.60000000 300.01203836
174.90000000 299.99130133
175.20000000 299.98055520
175.50000000 299.97900058
175.80000000 299.98504756
176.10000000 299.99672859
176.40000000 300.01212768
176.70000000 300.02968183
177.00000000 300.04830143
177.30000000 300.06737861
177.60000000 300.08672659
177.90000000 300.10661932
178.20000000 300.12789966
178.50000000 300.15188482
178.80000000 300.18005294
179.10000000 300.21358416
179.40000000 300.25281774
179.70000000 300.29685654
180.00000000 300.34357178
180.30000000 300.38998853
180.60000000 300.43292563
180.90000000 300.46971968
181.20000000 300.49881762
181.50000000 300.52010972
181.80000000 300.53490963
182.10000000 300.54552483
182.40000000 300.55453331
182.70000000 300.56407471
183.00000000 300.57536858
183.30000000 300.58859241
183.60000000 300.60316762
183.90000000 300.61821124
184.20000000 300.63291802
184.50000000 300.64681585
184.80000000 300.65984576
185.10000000 300.67235477
185.40000000 300.68507404
185.70000000 300.69895633
186.00000000 300.71489834
186.30000000 300.73346122
186.60000000 300.75472271
186.90000000 300.77838152
187.20000000 300.80406822
187.50000000 300.83168614
187.80000000 300.86157460
188.10000000 300.89435748
188.40000000 300.93051568
188.70000000 300.96987593
189.00000000 301.01125782
189.30000000 301.05245625
189.60000000 301.09062882
189.90000000 301.12299668
190.20000000 301.14768994
190.50000000 301.16443860
190.80000000 301.17478887
191.10000000 301.18172030
191.40000000 301.18873775
191.70000000 301.19875109
192.00000000 301.21317259
192.30000000 301.23154722
192.60000000 301.25183996
192.90000000 301.27118183
193.20000000 301.28674353
193.50000000 301.29643122
193.80000000 301.29918897
194.10000000 301.29495009
194.40000000 301.28438090
194.70000000 301.26860207
195.00000000 301.24896887
195.30000000 301.22688117
195.60000000 301.20365990
195.90000000 301.18048388
196.20000000 301.15835976
196.50000000 301.13813691
196.80000000 301.12052017
197.10000000 301.10608557
197.40000000 301.09525401
197.70000000 301.08814729
198.00000000 301.08435577
198.30000000 301.08270334
198.60000000 301.08121080
198.90000000 301.07738904
199.20000000 301.06881158
199.50000000 301.05385105
199.80000000 301.03228069
200.10000000 301.00543170
200.40000000 300.97578099
200.70000000 300.94612947
201.00000000 300.91873255
201.30000000 300.89470138
201.60000000 300.87384906
201.90000000 300.85496543
202.20000000 300.83635921
202.50000000 300.81643397
202.80000000 300.79411606
203.10000000 300.76899795
203.40000000 300.74120820
203.70000000 300.71114479
204.00000000 300.67919327
204.30000000 300.64550032
204.60000000 300.60986190
204.90000000 300.57172630
205.20000000 300.53031591
205.50000000 300.48487660
205.80000000 300.43498466
206.10000000 300.38086803
206.40000000 300.32358382
206.70000000 300.26495102
207.00000000 300.20716833
207.30000000 300.15221779
207.60000000 300.10130750
207.90000000 300.05459054
208.20000000 300.01128103
208.50000000 299.97010843
208.80000000 299.92985710
209.10000000 299.88970177
209.40000000 299.84926338
209.70000000 299.80844592
210.00000000 299.76727189
210.30000000 299.72592826
210.60000000 299.68494072
210.90000000 299.64530227
211.20000000 299.60840495
211.50000000 299.57578695
211.80000000 299.54876906
212.10000000 299.52814951
212.40000000 299.51407772
212.70000000 299.50607947
213.00000000 299.50326485
213.30000000 299.50454643
213.60000000 299.50872427
213.90000000 299.51444393
214.20000000 299.52009632
214.50000000 299.52388688
214.80000000 299.52414494
215.10000000 299.51980858
215.40000000 299.51093819
215.70000000 299.49895102
216.00000000 299.48637180
216.30000000 299.47618483
216.60000000 299.47103332
216.90000000 299.47252991
217.20000000 299.48091335
217.50000000 299.49511103
217.80000000 299.51310346
218.10000000 299.53238709
218.40000000 299.55039725
218.70000000 299.56492434
219.00000000 299.57457066
219.30000000 299.57915408
219.60000000 299.57996513
219.90000000 299.57970090
220.20000000 299.58192461
220.50000000 299.59018389
220.80000000 299.60708362
221.10000000 299.63362402
221.40000000 299.66908538
221.70000000 299.71147484
222.00000000 299.75831557
222.30000000 299.80742925
222.60000000 299.85737510
222.90000000 299.90738541
223.20000000 299.95693185
223.50000000 300.00529830
223.80000000 300.05140738
224.10000000 300.09402878
224.40000000 300.13229564
224.70000000 300.16626871
225.00000000 300.19724848
225.30000000 300.22759754
225.60000000 300.26015427
225.90000000 300.29745343
226.20000000 300.34098177
226.50000000 300.39072736
226.80000000 300.44515008
227.10000000 300.50154240
227.40000000 300.55672875
227.70000000 300.60793588
228.00000000 300.65356911
228.30000000 300.69364853
228.60000000 300.72976513
228.90000000 300.76460710
229.20000000 300.80122578
229.50000000 300.84224122
229.80000000 300.88922544
230.10000000 300.94236426
230.40000000 301.00052506
230.70000000 301.06181451
231.00000000 301.12436334
231.30000000 301.18709569
231.60000000 301.25013561
231.90000000 301.31462208
232.20000000 301.38207819
232.50000000 301.45356400
232.80000000 301.52898564
233.10000000 301.60689026
233.40000000 301.68477461
233.70000000 301.75975828
234.00000000 301.82937135
234.30000000 301.89220401
